	TrackID		31
	X-coordinates	Y-coordinates	Time	Curvature	 Perimeter	 	 Intensity 	 	 IntensitySec
	243.33		170.5		1		0.012				99.141		13,372		13,372
	243.33		170.5		1		0.012				99.141		13,372		13,372
	239.04		185.47		2		0.011				103.817		11,401		11,401
	239.04		185.47		2		0.011				103.817		11,401		11,401
	243.68		168.5		3		0.011				99.141		7,012		7,012
	243.68		168.5		3		0.011				99.141		7,012		7,012
	240.09		182.46		4		0.011				103.465		9,189		9,189
	240.09		182.46		4		0.011				103.465		9,189		9,189
	239.45		183.44		5		0.011				104.547		17,193		17,193
	239.45		183.44		5		0.011				104.547		17,193		17,193
	239.53		182.33		6		0.011				102.883		13,821		13,821
	239.53		182.33		6		0.011				102.883		13,821		13,821
	242.82		166.5		7		0.012				99.298		17,026		17,026
	242.82		166.5		7		0.012				99.298		17,026		17,026
	237.19		183.23		8		0.011				101.951		13,286		13,286
	237.19		183.23		8		0.011				101.951		13,286		13,286
	236.52		183.43		9		0.011				102.528		16,033		16,033
	236.52		183.43		9		0.011				102.528		16,033		16,033
	236.89		183.36		10		0.011				102.181		17,952		17,952
	236.89		183.36		10		0.011				102.181		17,952		17,952
	236.63		185.34		11		0.011				101.951		15,600		15,600
	236.63		185.34		11		0.011				101.951		15,600		15,600
	240.78		169.5		12		0.011				98.732		15,619		15,619
	240.78		169.5		12		0.011				98.732		15,619		15,619
	233.61		192.79		13		0.012				100.623		12,851		12,851
	233.61		192.79		13		0.012				100.623		12,851		12,851
	235.02		190.79		14		0.012				99.745		10,621		10,621
	235.02		190.79		14		0.012				99.745		10,621		10,621
	240.91		169.5		15		0.012				99.298		12,154		12,154
	240.91		169.5		15		0.012				99.298		12,154		12,154
	237.17		182.39		16		0.012				102.318		13,717		13,717
	237.17		182.39		16		0.012				102.318		13,717		13,717
	241.08		167.5		17		0.012				99.464		18,856		18,856
	241.08		167.5		17		0.012				99.464		18,856		18,856
	242.28		165.11		18		0.012				96.876		11,372		11,372
	242.28		165.11		18		0.012				96.876		11,372		11,372
	242.35		164.23		19		0.012				97.015		14,574		14,574
	242.35		164.23		19		0.012				97.015		14,574		14,574
	235.33		184.16		20		0.012				103.315		9,801		9,801
	235.33		184.16		20		0.012				103.315		9,801		9,801
	235.98		182.21		21		0.012				103.788		12,744		12,744
	235.98		182.21		21		0.012				103.788		12,744		12,744
	236.03		182.75		22		0.013				101.98		14,467		14,467
	236.03		182.75		22		0.013				101.98		14,467		14,467
	241.96		161.26		23		0.013				97.867		16,505		16,505
	241.96		161.26		23		0.013				97.867		16,505		16,505
	236.16		178.49		24		0.012				104.547		15,796		15,796
	236.16		178.49		24		0.012				104.547		15,796		15,796
	236.03		178.35		25		0.011				102.528		15,880		15,880
	236.03		178.35		25		0.011				102.528		15,880		15,880
	235.89		182.25		26		0.012				101.769		8,141		8,141
	235.89		182.25		26		0.012				101.769		8,141		8,141
	241.4		167.5		27		0.012				99.639		13,919		13,919
	241.4		167.5		27		0.012				99.639		13,919		13,919
	241.53		166.5		28		0.012				99.464		12,781		12,781
	241.53		166.5		28		0.012				99.464		12,781		12,781
	236.17		183.19		29		0.011				102.956		8,142		8,142
	236.17		183.19		29		0.011				102.956		8,142		8,142
	236.37		181.31		30		0.011				103.47		19,343		19,343
	236.37		181.31		30		0.011				103.47		19,343		19,343
	240.35		166.5		31		0.012				99.825		14,312		14,312
	240.35		166.5		31		0.012				99.825		14,312		14,312
	239.35		166.5		32		0.011				100.02		17,716		17,716
	239.35		166.5		32		0.011				100.02		17,716		17,716
	239.53		165.48		33		0.012				98.656		16,735		16,735
	239.53		165.48		33		0.012				98.656		16,735		16,735
	239.21		163.5		34		0.011				99.141		17,326		17,326
	239.21		163.5		34		0.011				99.141		17,326		17,326
	239.83		161.5		35		0.012				98.995		9,757		9,757
	239.83		161.5		35		0.012				98.995		9,757		9,757
	235.65		177.39		36		0.01				103.465		10,280		10,280
	235.65		177.39		36		0.01				103.465		10,280		10,280
	238.38		163.43		37		0.011				98.311		20,310		20,310
	238.38		163.43		37		0.011				98.311		20,310		20,310
	234.35		176.45		38		0.01				103.121		19,181		19,181
	234.35		176.45		38		0.01				103.121		19,181		19,181
	233.77		178.35		39		0.01				101.843		17,646		17,646
	233.77		178.35		39		0.01				101.843		17,646		17,646
	234.58		177.28		40		0.011				101.843		13,671		13,671
	234.58		177.28		40		0.011				101.843		13,671		13,671
	233.83		179.31		41		0.012				102.694		10,198		10,198
	233.83		179.31		41		0.012				102.694		10,198		10,198
	238.76		164.49		42		0.012				99.464		18,439		18,439
	238.76		164.49		42		0.012				99.464		18,439		18,439
	234.14		178.43		43		0.011				104.547		15,235		15,235
	234.14		178.43		43		0.011				104.547		15,235		15,235
	238.26		164.5		44		0.011				99.298		15,757		15,757
	238.26		164.5		44		0.011				99.298		15,757		15,757
	237.39		166.5		45		0.01				99.639		18,871		18,871
	237.39		166.5		45		0.01				99.639		18,871		18,871
	237.66		164.5		46		0.01				99.141		19,634		19,634
	237.66		164.5		46		0.01				99.141		19,634		19,634
	237.43		163.5		47		0.01				99.141		15,638		15,638
	237.43		163.5		47		0.01				99.141		15,638		15,638
	237.29		163.5		48		0.01				99.141		13,658		13,658
	237.29		163.5		48		0.01				99.141		13,658		13,658
	234.09		178.5		49		0.01				103.73		21,416		21,416
	234.09		178.5		49		0.01				103.73		21,416		21,416
	232.51		183.47		50		0.009				104.547		13,590		13,590
	232.51		183.47		50		0.009				104.547		13,590		13,590
	236.63		165.5		51		0.01				99.141		17,391		17,391
	236.63		165.5		51		0.01				99.141		17,391		17,391
	236.28		167.5		52		0.01				99.464		10,636		10,636
	236.28		167.5		52		0.01				99.464		10,636		10,636
	233.25		179.46		53		0.01				101.533		15,518		15,518
	233.25		179.46		53		0.01				101.533		15,518		15,518
	235.56		167.5		54		0.01				98.995		12,572		12,572
	235.56		167.5		54		0.01				98.995		12,572		12,572
	232.42		181.36		55		0.01				101.514		13,126		13,126
	232.42		181.36		55		0.01				101.514		13,126		13,126
	236.76		167.5		56		0.01				98.858		16,774		16,774
	236.76		167.5		56		0.01				98.858		16,774		16,774
	232.05		185.28		57		0.011				102.694		16,071		16,071
	232.05		185.28		57		0.011				102.694		16,071		16,071
	231.28		188.14		58		0.011				102.46		11,021		11,021
	231.28		188.14		58		0.011				102.46		11,021		11,021
	239.05		164.5		59		0.011				98.732		15,383		15,383
	239.05		164.5		59		0.011				98.732		15,383		15,383
	232.31		187.2		60		0.011				103.368		15,578		15,578
	232.31		187.2		60		0.011				103.368		15,578		15,578
	238.59		165.5		61		0.011				98.995		14,736		14,736
	238.59		165.5		61		0.011				98.995		14,736		14,736
	234.08		182.42		62		0.01				103.619		14,989		14,989
	234.08		182.42		62		0.01				103.619		14,989		14,989
	234.57		179.46		63		0.011				103.121		15,672		15,672
	234.57		179.46		63		0.011				103.121		15,672		15,672
	234.25		177.45		64		0.011				101.833		14,511		14,511
	234.25		177.45		64		0.011				101.833		14,511		14,511
	233.69		175.45		65		0.011				100.96		19,865		19,865
	233.69		175.45		65		0.011				100.96		19,865		19,865
	235.8		168.5		66		0.011				99.298		15,050		15,050
	235.8		168.5		66		0.011				99.298		15,050		15,050
	236.63		168.5		67		0.011				99.464		14,300		14,300
	236.63		168.5		67		0.011				99.464		14,300		14,300
	234.21		179.45		68		0.011				102.46		15,054		15,054
	234.21		179.45		68		0.011				102.46		15,054		15,054
	233.17		181.41		69		0.01				102.883		17,956		17,956
	233.17		181.41		69		0.01				102.883		17,956		17,956
	233.68		181.4		70		0.011				103.247		14,503		14,503
	233.68		181.4		70		0.011				103.247		14,503		14,503
	238.96		162.5		71		0.011				98.732		16,317		16,317
	238.96		162.5		71		0.011				98.732		16,317		16,317
	232.39		184.23		72		0.01				103.87		21,957		21,957
	232.39		184.23		72		0.01				103.87		21,957		21,957
	232.06		187.06		73		0.01				102.883		17,482		17,482
	232.06		187.06		73		0.01				102.883		17,482		17,482
	231.69		186.31		74		0.01				104.216		14,442		14,442
	231.69		186.31		74		0.01				104.216		14,442		14,442
	232.18		187.12		75		0.011				102.883		13,797		13,797
	232.18		187.12		75		0.011				102.883		13,797		13,797
	238.16		164.5		76		0.011				98.858		19,922		19,922
	238.16		164.5		76		0.011				98.858		19,922		19,922
	232.43		182.26		77		0.011				100.658		13,929		13,929
	232.43		182.26		77		0.011				100.658		13,929		13,929
	236.02		166.5		78		0.011				99.141		20,093		20,093
	236.02		166.5		78		0.011				99.141		20,093		20,093
	235.59		167.5		79		0.011				99.298		10,145		10,145
	235.59		167.5		79		0.011				99.298		10,145		10,145
	235.24		168.5		80		0.011				99.464		13,681		13,681
	235.24		168.5		80		0.011				99.464		13,681		13,681
	235.04		168.5		81		0.011				99.464		15,700		15,700
	235.04		168.5		81		0.011				99.464		15,700		15,700
	232.83		179.45		82		0.01				102.786		17,011		17,011
	232.83		179.45		82		0.01				102.786		17,011		17,011
	232.79		180.49		83		0.01				103.121		13,847		13,847
	232.79		180.49		83		0.01				103.121		13,847		13,847
	237.58		167.5		84		0.01				99.464		12,810		12,810
	237.58		167.5		84		0.01				99.464		12,810		12,810
	238.16		164.5		85		0.01				98.995		16,595		16,595
	238.16		164.5		85		0.01				98.995		16,595		16,595
	231.44		186.42		86		0.009				106.024		15,309		15,309
	231.44		186.42		86		0.009				106.024		15,309		15,309
	231.77		185.4		87		0.009				105.603		13,202		13,202
	231.77		185.4		87		0.009				105.603		13,202		13,202
	238.06		163.5		88		0.01				98.858		13,751		13,751
	238.06		163.5		88		0.01				98.858		13,751		13,751
	237.63		165.5		89		0.01				98.995		12,956		12,956
	237.63		165.5		89		0.01				98.995		12,956		12,956
	236.54		167.5		90		0.01				98.858		9,622		9,622
	236.54		167.5		90		0.01				98.858		9,622		9,622
	231.11		182.36		91		0.011				102.181		11,833		11,833
	231.11		182.36		91		0.011				102.181		11,833		11,833
	231.36		182.38		92		0.011				102.181		15,620		15,620
	231.36		182.38		92		0.011				102.181		15,620		15,620
	234.34		171.5		93		0.012				99.639		12,565		12,565
	234.34		171.5		93		0.012				99.639		12,565		12,565
	236.45		171.5		94		0.012				99.639		9,511		9,511
	236.45		171.5		94		0.012				99.639		9,511		9,511
	233.25		186.04		95		0.011				100.464		16,058		16,058
	233.25		186.04		95		0.011				100.464		16,058		16,058
	238.49		170.5		96		0.012				99.298		11,333		11,333
	238.49		170.5		96		0.012				99.298		11,333		11,333
	239.26		168.38		97		0.011				97.867		15,108		15,108
	239.26		168.38		97		0.011				97.867		15,108		15,108
	234.08		185.91		98		0.011				100.846		12,368		12,368
	234.08		185.91		98		0.011				100.846		12,368		12,368
	235.22		184.25		99		0.01				102.318		14,435		14,435
	235.22		184.25		99		0.01				102.318		14,435		14,435
	232.58		191.12		100		0.01				104.202		18,082		18,082
	232.58		191.12		100		0.01				104.202		18,082		18,082
	232.69		191.13		101		0.01				104.657		16,567		16,567
	232.69		191.13		101		0.01				104.657		16,567		16,567
	232.6		192.85		102		0.01				104.235		24,974		24,974
	232.6		192.85		102		0.01				104.235		24,974		24,974
	240.72		164.5		103		0.011				98.509		11,934		11,934
	240.72		164.5		103		0.011				98.509		11,934		11,934
	232.61		190.99		104		0.01				103.315		11,960		11,960
	232.61		190.99		104		0.01				103.315		11,960		11,960
	233.54		186.28		105		0.011				103.47		9,987		9,987
	233.54		186.28		105		0.011				103.47		9,987		9,987
	238.52		168.5		106		0.012				99.298		9,283		9,283
	238.52		168.5		106		0.012				99.298		9,283		9,283
	234.84		183.25		107		0.012				102.318		10,294		10,294
	234.84		183.25		107		0.012				102.318		10,294		10,294
	240.12		168.42		108		0.014				98.311		13,994		13,994
	240.12		168.42		108		0.014				98.311		13,994		13,994
	241.4		166.39		109		0.014				98.153		12,791		12,791
	241.4		166.39		109		0.014				98.153		12,791		12,791
	234.78		187.91		110		0.011				102.883		13,989		13,989
	234.78		187.91		110		0.011				102.883		13,989		13,989
	235.55		187.91		111		0.011				102.46		9,567		9,567
	235.55		187.91		111		0.011				102.46		9,567		9,567
	240.89		167.5		112		0.012				99.298		11,949		11,949
	240.89		167.5		112		0.012				99.298		11,949		11,949
	240.3		167.5		113		0.012				99.141		9,826		9,826
	240.3		167.5		113		0.012				99.141		9,826		9,826
	239.54		168.5		114		0.012				98.995		13,890		13,890
	239.54		168.5		114		0.012				98.995		13,890		13,890
	232.93		188.33		115		0.011				103.788		7,415		7,415
	232.93		188.33		115		0.011				103.788		7,415		7,415
	231.64		190.27		116		0.011				104.216		13,099		13,099
	231.64		190.27		116		0.011				104.216		13,099		13,099
	231.05		191.15		117		0.011				103.788		8,973		8,973
	231.05		191.15		117		0.011				103.788		8,973		8,973
	236.83		169.5		118		0.012				98.995		16,132		16,132
	236.83		169.5		118		0.012				98.995		16,132		16,132
	230.91		188.42		119		0.011				103.619		11,723		11,723
	230.91		188.42		119		0.011				103.619		11,723		11,723
	232.38		184.34		120		0.012				101.514		7,690		7,690
	232.38		184.34		120		0.012				101.514		7,690		7,690
	235.29		172.5		121		0.012				99.141		15,439		15,439
	235.29		172.5		121		0.012				99.141		15,439		15,439
	235.48		172.5		122		0.012				99.141		17,383		17,383
	235.48		172.5		122		0.012				99.141		17,383		17,383
	235.94		171.5		123		0.012				98.995		17,454		17,454
	235.94		171.5		123		0.012				98.995		17,454		17,454
	236.87		172.38		124		0.012				96.876		15,235		15,235
	236.87		172.38		124		0.012				96.876		15,235		15,235
	238.08		171.49		125		0.011				98.732		11,934		11,934
	238.08		171.49		125		0.011				98.732		11,934		11,934
	238.77		170.5		126		0.012				98.615		17,569		17,569
	238.77		170.5		126		0.012				98.615		17,569		17,569
	232.56		193.03		127		0.012				102.883		16,468		16,468
	232.56		193.03		127		0.012				102.883		16,468		16,468
	232.57		192.13		128		0.012				103.315		15,567		15,567
	232.57		192.13		128		0.012				103.315		15,567		15,567
	232.86		190.24		129		0.012				103.788		12,875		12,875
	232.86		190.24		129		0.012				103.788		12,875		12,875
	231.49		193.03		130		0.012				102.859		15,837		15,837
	231.49		193.03		130		0.012				102.859		15,837		15,837
	230.14		194.55		131		0.011				102.421		10,767		10,767
	230.14		194.55		131		0.011				102.421		10,767		10,767
	237.4		170.5		132		0.012				98.995		17,475		17,475
	237.4		170.5		132		0.012				98.995		17,475		17,475
	236.75		170.5		133		0.011				98.858		11,949		11,949
	236.75		170.5		133		0.011				98.858		11,949		11,949
	231.4		189.36		134		0.011				103.078		13,446		13,446
	231.4		189.36		134		0.011				103.078		13,446		13,446
	231.94		187.37		135		0.012				102.318		8,544		8,544
	231.94		187.37		135		0.012				102.318		8,544		8,544
	231.34		189.11		136		0.012				100.846		10,980		10,980
	231.34		189.11		136		0.012				100.846		10,980		10,980
	230.21		192.94		137		0.012				100.648		18,935		18,935
	230.21		192.94		137		0.012				100.648		18,935		18,935
	237.86		170.5		138		0.011				98.615		19,737		19,737
	237.86		170.5		138		0.011				98.615		19,737		19,737
	239.12		171.5		139		0.011				98.732		18,726		18,726
	239.12		171.5		139		0.011				98.732		18,726		18,726
	232.17		195.93		140		0.012				101.966		15,100		15,100
	232.17		195.93		140		0.012				101.966		15,100		15,100
	231.81		196.96		141		0.011				102.421		17,205		17,205
	231.81		196.96		141		0.011				102.421		17,205		17,205
	231.81		196.91		142		0.011				103.354		12,182		12,182
	231.81		196.91		142		0.011				103.354		12,182		12,182
	230.73		196.68		143		0.011				102.956		12,465		12,465
	230.73		196.68		143		0.011				102.956		12,465		12,465
	228.32		200.37		144		0.011				104.307		8,177		8,177
	228.32		200.37		144		0.011				104.307		8,177		8,177
	239.97		168.49		145		0.012				98.509		13,936		13,936
	239.97		168.49		145		0.012				98.509		13,936		13,936
	239.17		169.5		146		0.012				98.732		12,585		12,585
	239.17		169.5		146		0.012				98.732		12,585		12,585
	238.43		169.5		147		0.012				98.509		15,024		15,024
	238.43		169.5		147		0.012				98.509		15,024		15,024
	228.69		194.78		148		0.012				101.533		11,114		11,114
	228.69		194.78		148		0.012				101.533		11,114		11,114
	236.08		170.5		149		0.012				98.615		12,781		12,781
	236.08		170.5		149		0.012				98.615		12,781		12,781
	228.07		193.79		150		0.012				101.518		12,788		12,788
	228.07		193.79		150		0.012				101.518		12,788		12,788
	227.92		193.57		151		0.012				99.745		10,998		10,998
	227.92		193.57		151		0.012				99.745		10,998		10,998
	229.52		188.2		152		0.012				102.157		11,032		11,032
	229.52		188.2		152		0.012				102.157		11,032		11,032
	228.99		189.97		153		0.012				101.553		8,452		8,452
	228.99		189.97		153		0.012				101.553		8,452		8,452
	228.85		192.02		154		0.012				102.416		13,984		13,984
	228.85		192.02		154		0.012				102.416		13,984		13,984
	236.93		170.5		155		0.011				98.858		14,211		14,211
	236.93		170.5		155		0.011				98.858		14,211		14,211
	237.61		170.5		156		0.012				98.732		16,740		16,740
	237.61		170.5		156		0.012				98.732		16,740		16,740
	238.14		169.45		157		0.012				97.514		12,754		12,754
	238.14		169.45		157		0.012				97.514		12,754		12,754
	230.38		196.53		158		0.012				100.648		13,819		13,819
	230.38		196.53		158		0.012				100.648		13,819		13,819
	238.13		171.5		159		0.012				99.141		10,043		10,043
	238.13		171.5		159		0.012				99.141		10,043		10,043
	231.37		192.74		160		0.012				101.518		8,530		8,530
	231.37		192.74		160		0.012				101.518		8,530		8,530
	237.3		172.45		161		0.012				98.005		23,239		23,239
	237.3		172.45		161		0.012				98.005		23,239		23,239
	229.59		195.93		162		0.011				102.883		17,773		17,773
	229.59		195.93		162		0.011				102.883		17,773		17,773
	237.11		172.5		163		0.011				98.858		14,844		14,844
	237.11		172.5		163		0.011				98.858		14,844		14,844
	227.57		198.71		164		0.01				102.883		13,669		13,669
	227.57		198.71		164		0.01				102.883		13,669		13,669
	236.74		168.5		165		0.01				98.615		11,131		11,131
	236.74		168.5		165		0.01				98.615		11,131		11,131
	229.39		193.07		166		0.009				103.788		11,370		11,370
	229.39		193.07		166		0.009				103.788		11,370		11,370
	230.29		190.32		167		0.01				103.87		10,643		10,643
	230.29		190.32		167		0.01				103.87		10,643		10,643
	237		167.5		168		0.011				98.995		15,451		15,451
	237		167.5		168		0.011				98.995		15,451		15,451
	237.17		167.5		169		0.011				98.995		13,529		13,529
	237.17		167.5		169		0.011				98.995		13,529		13,529
	231.17		188.3		170		0.011				102.956		9,901		9,901
	231.17		188.3		170		0.011				102.956		9,901		9,901
	231.07		190.24		171		0.011				103.368		17,055		17,055
	231.07		190.24		171		0.011				103.368		17,055		17,055
	232.39		190.11		172		0.011				102.956		16,137		16,137
	232.39		190.11		172		0.011				102.956		16,137		16,137
	239.54		170.5		173		0.011				99.141		12,993		12,993
	239.54		170.5		173		0.011				99.141		12,993		12,993
	240.82		169.5		174		0.011				98.858		19,604		19,604
	240.82		169.5		174		0.011				98.858		19,604		19,604
	240.54		170.5		175		0.012				98.995		14,955		14,955
	240.54		170.5		175		0.012				98.995		14,955		14,955
	240.91		172.5		176		0.012				99.141		17,798		17,798
	240.91		172.5		176		0.012				99.141		17,798		17,798
	239.99		172.43		177		0.013				98.005		13,707		13,707
	239.99		172.43		177		0.013				98.005		13,707		13,707
	233.49		194.25		178		0.012				104.216		15,743		15,743
	233.49		194.25		178		0.012				104.216		15,743		15,743
	232.93		194.17		179		0.012				103.315		10,704		10,704
	232.93		194.17		179		0.012				103.315		10,704		10,704
	233.31		192.27		180		0.012				103.788		9,976		9,976
	233.31		192.27		180		0.012				103.788		9,976		9,976
	233.21		191.99		181		0.011				102.956		17,481		17,481
	233.21		191.99		181		0.011				102.956		17,481		17,481
	234.56		187.41		182		0.011				104		14,468		14,468
	234.56		187.41		182		0.011				104		14,468		14,468
	239.31		171.5		183		0.012				99.825		19,303		19,303
	239.31		171.5		183		0.012				99.825		19,303		19,303
	234.85		188.34		184		0.011				104.278		21,673		21,673
	234.85		188.34		184		0.011				104.278		21,673		21,673
	240.96		169.48		185		0.012				98.005		15,909		15,909
	240.96		169.48		185		0.012				98.005		15,909		15,909
	234.57		191.92		186		0.011				103.788		14,626		14,626
	234.57		191.92		186		0.011				103.788		14,626		14,626
	234.97		193.98		187		0.01				103.315		14,197		14,197
	234.97		193.98		187		0.01				103.315		14,197		14,197
	242.67		168.5		188		0.012				98.615		15,846		15,846
	242.67		168.5		188		0.012				98.615		15,846		15,846
	232.67		198.35		189		0.011				103.354		12,446		12,446
	232.67		198.35		189		0.011				103.354		12,446		12,446
	233.34		196.36		190		0.011				102.421		12,068		12,068
	233.34		196.36		190		0.011				102.421		12,068		12,068
	234.46		193.28		191		0.011				104.652		9,908		9,908
	234.46		193.28		191		0.011				104.652		9,908		9,908
	234.41		193.02		192		0.012				103.755		14,490		14,490
	234.41		193.02		192		0.012				103.755		14,490		14,490
	241.55		167.5		193		0.012				98.509		16,563		16,563
	241.55		167.5		193		0.012				98.509		16,563		16,563
	232.55		195.42		194		0.012				100.648		9,297		9,297
	232.55		195.42		194		0.012				100.648		9,297		9,297
	240.49		167.5		195		0.012				98.509		9,607		9,607
	240.49		167.5		195		0.012				98.509		9,607		9,607
	240.67		166.5		196		0.011				98.509		11,384		11,384
	240.67		166.5		196		0.011				98.509		11,384		11,384
	240.96		164.5		197		0.011				98.412		11,242		11,242
	240.96		164.5		197		0.011				98.412		11,242		11,242
	235.15		186.25		198		0.011				102.552		11,345		11,345
	235.15		186.25		198		0.011				102.552		11,345		11,345
	234.86		187.1		199		0.01				102.044		13,718		13,718
	234.86		187.1		199		0.01				102.044		13,718		13,718
	235.84		186.32		200		0.011				104.695		12,444		12,444
	235.84		186.32		200		0.011				104.695		12,444		12,444
	235.75		188.06		201		0.01				104.216		8,174		8,174
	235.75		188.06		201		0.01				104.216		8,174		8,174
	243.32		165.5		202		0.012				98.858		13,030		13,030
	243.32		165.5		202		0.012				98.858		13,030		13,030
	243.44		165.5		203		0.012				98.858		12,147		12,147
	243.44		165.5		203		0.012				98.858		12,147		12,147
	242.77		168.45		204		0.012				98.005		14,862		14,862
	242.77		168.45		204		0.012				98.005		14,862		14,862
	235.88		189.94		205		0.012				101.553		12,059		12,059
	235.88		189.94		205		0.012				101.553		12,059		12,059
	235.31		190.99		206		0.012				101.98		13,073		13,073
	235.31		190.99		206		0.012				101.98		13,073		13,073
	234		193		207		0.012				101.98		16,992		16,992
	234		193		207		0.012				101.98		16,992		16,992
	233.73		193.93		208		0.012				100.648		13,470		13,470
	233.73		193.93		208		0.012				100.648		13,470		13,470
	240.43		167.5		209		0.011				98.412		11,210		11,210
	240.43		167.5		209		0.011				98.412		11,210		11,210
	240.07		167.5		210		0.011				98.509		12,523		12,523
	240.07		167.5		210		0.011				98.509		12,523		12,523
	240.3		166.5		211		0.011				98.509		11,328		11,328
	240.3		166.5		211		0.011				98.509		11,328		11,328
	240.8		165.5		212		0.01				98.615		9,500		9,500
	240.8		165.5		212		0.01				98.615		9,500		9,500
	236.14		188.16		213		0.011				102.552		15,447		15,447
	236.14		188.16		213		0.011				102.552		15,447		15,447
	243.22		164.5		214		0.011				98.732		11,728		11,728
	243.22		164.5		214		0.011				98.732		11,728		11,728
	237		187.4		215		0.011				105.603		14,332		14,332
	237		187.4		215		0.011				105.603		14,332		14,332
	237.51		187.34		216		0.011				105.19		12,443		12,443
	237.51		187.34		216		0.011				105.19		12,443		12,443
	237.03		190.04		217		0.011				104.216		15,386		15,386
	237.03		190.04		217		0.011				104.216		15,386		15,386
	235.69		192.85		218		0.011				103.769		11,844		11,844
	235.69		192.85		218		0.011				103.769		11,844		11,844
	236.82		191.12		219		0.011				102.883		15,795		15,795
	236.82		191.12		219		0.011				102.883		15,795		15,795
	237.64		190.3		220		0.012				102.552		14,444		14,444
	237.64		190.3		220		0.012				102.552		14,444		14,444
	243		168.5		221		0.011				98.412		13,876		13,876
	243		168.5		221		0.011				98.412		13,876		13,876
	242.37		168.5		222		0.01				98.412		14,283		14,283
	242.37		168.5		222		0.01				98.412		14,283		14,283
	242.27		168.5		223		0.01				98.509		14,725		14,725
	242.27		168.5		223		0.01				98.509		14,725		14,725
	235.93		190.13		224		0.012				101.237		10,853		10,853
	235.93		190.13		224		0.012				101.237		10,853		10,853
	236.07		187.26		225		0.011				101.769		16,088		16,088
	236.07		187.26		225		0.011				101.769		16,088		16,088
	241.75		166.5		226		0.01				98.995		12,512		12,512
	241.75		166.5		226		0.01				98.995		12,512		12,512
	236.29		183.36		227		0.01				104		13,490		13,490
	236.29		183.36		227		0.01				104		13,490		13,490
	236.87		183.42		228		0.01				105.19		11,571		11,571
	236.87		183.42		228		0.01				105.19		11,571		11,571
	242.8		164.5		229		0.011				99.464		14,715		14,715
	242.8		164.5		229		0.011				99.464		14,715		14,715
	243.6		164.5		230		0.011				99.464		10,396		10,396
	243.6		164.5		230		0.011				99.464		10,396		10,396
	236.89		185.29		231		0.011				105.095		10,733		10,733
	236.89		185.29		231		0.011				105.095		10,733		10,733
	236.97		186.18		232		0.011				105.095		18,387		18,387
	236.97		186.18		232		0.011				105.095		18,387		18,387
	236.66		188.97		233		0.011				103.769		12,950		12,950
	236.66		188.97		233		0.011				103.769		12,950		12,950
	237.45		187.02		234		0.011				102.883		9,758		9,758
	237.45		187.02		234		0.011				102.883		9,758		9,758
	242.29		165.5		235		0.011				98.615		15,052		15,052
	242.29		165.5		235		0.011				98.615		15,052		15,052
	237.26		186.39		236		0.011				102.528		10,470		10,470
	237.26		186.39		236		0.011				102.528		10,470		10,470
	241.41		166.5		237		0.009				98.615		13,413		13,413
	241.41		166.5		237		0.009				98.615		13,413		13,413
	237.58		184.39		238		0.011				102.181		12,524		12,524
	237.58		184.39		238		0.011				102.181		12,524		12,524
	237.65		185.39		239		0.01				102.883		14,117		14,117
	237.65		185.39		239		0.01				102.883		14,117		14,117
	242.97		164.5		240		0.01				98.858		16,445		16,445
	242.97		164.5		240		0.01				98.858		16,445		16,445
	237.93		184.98		241		0.011				99.925		11,155		11,155
	237.93		184.98		241		0.011				99.925		11,155		11,155
